# ----------------------------------------------------- #
#  Intensity Calibration Factor: Circuit 1              #
# ----------------------------------------------------- #
# ADC Intensity [A]             Calibration             #
# ----------------------------------------------------- #
0.0995     0.9316
0.1995     0.9647
0.2994     0.9759
0.3992     0.983
0.4991     0.9862
0.5991     0.9914
0.6998     0.9918
0.7489     0.9906
0.7988     0.9944
0.8189     0.9915
0.8389     0.9945
0.8589     0.9943
0.8788     0.9967
0.8988     0.9951
0.9187     0.9948
0.9388     0.9953
0.9588     0.9959
0.9777     0.9946
1.0187     0.9963
1.0388     0.9965
1.0586     0.999
1.0787     0.9967
1.0986     0.9981
1.1186     0.9977
1.1386     0.9976
1.1586     0.9978
1.1787     0.9969
1.1986     0.9973
1.2186     0.997
1.2385     0.9969
1.2585     0.9959
1.2784     0.9969
1.2985     0.9958
1.3184     0.9974
1.3384     0.997
1.3583     0.9971
1.3784     0.9977
1.3981     0.9972
1.4183     0.9959
1.4383     0.9985
1.4581     0.9992
1.4782     0.9973
1.498     1.0051
1.518     1.0001
1.538     0.9974
1.558     1.0004
1.577     0.9983
1.5979     1.0011
1.618     1.0021
1.6379     1.002
